TIN STATISTICS1											
U.S. GEOLOGICAL SURVEY											
[All values in metric tons (t) tin content unless otherwise noted]											
Last modification: April 1, 2014											
Year	Primary production	Secondary production	Imports	Exports	Government shipments	Government stocks	Industry stocks	Apparent consumption	Unit value ($/t)	Unit value (98$/t)	World production
1900	NA	NA	31700	NA	NA	NA	NA	31700	659	12900	NA
1901	NA	NA	33800	NA	NA	NA	NA	33800	368	7220	NA
1902	NA	NA	38600	NA	NA	NA	15000	38600	591	11200	NA
1903	NA	NA	37700	NA	NA	NA	18400	34300	619	11300	NA
1904	NA	NA	37600	NA	NA	NA	15000	41000	617	11200	NA
1905	NA	NA	40100	NA	NA	NA	NA	40100	692	12600	93600
1906	NA	NA	45800	NA	NA	NA	NA	45800	877	15900	98400
1907	NA	NA	37400	NA	NA	NA	NA	37400	842	14800	93800
1908	NA	NA	37400	NA	NA	NA	NA	37400	650	11800	106000
1909	NA	NA	43200	NA	NA	NA	NA	43200	655	11900	106000
1910	NA	NA	47700	NA	NA	NA	NA	47700	752	13200	105000
1911	NA	NA	48600	NA	NA	NA	NA	48600	933	16400	112000
1912	NA	NA	52600	NA	NA	NA	NA	52600	1020	17200	122000
1913	NA	NA	47500	NA	NA	NA	NA	47500	977	16100	136000
1914	NA	NA	43100	NA	NA	NA	NA	43100	756	12300	128000
1915	NA	NA	52400	346	NA	NA	NA	52100	851	13700	129000
1916	2050	NA	62600	456	NA	NA	NA	64200	959	14300	128000
1917	5500	NA	65500	267	NA	NA	NA	70700	1360	17400	135000
1918	9330	NA	64600	258	NA	NA	NA	73700	1960	21100	128000
1919	11100	NA	40700	346	NA	NA	NA	51500	1400	13200	123000
1920	16000	NA	57000	942	NA	NA	NA	72100	1070	8660	126000
1921	10500	NA	24600	1420	NA	NA	NA	33700	659	5990	110000
1922	8260	NA	61200	1120	NA	NA	NA	68300	719	6980	127000
1923	6770	NA	70000	1060	NA	NA	NA	75700	941	8960	130000
1924	441	NA	66100	974	NA	NA	NA	65600	1110	10500	142000
1925	NA	NA	77900	947	NA	NA	NA	77000	1280	11900	147000
1926	NA	NA	78400	2010	NA	NA	NA	76400	1440	13200	146000
1927	NA	NA	72300	2270	NA	NA	NA	70000	1420	13300	161000
1928	NA	NA	79200	1640	NA	NA	NA	77600	1110	10600	180000
1929	NA	NA	88500	1960	NA	NA	NA	86500	996	9490	196000
1930	NA	NA	82000	2270	NA	NA	NA	79700	699	6850	179000
1931	NA	NA	67100	1690	NA	NA	NA	65400	540	5790	149000
1932	NA	NA	35400	1130	NA	NA	NA	34300	485	5770	96500
1933	NA	NA	64700	1060	NA	NA	NA	63600	862	10800	90400
1934	NA	NA	40600	1240	NA	NA	16800	39400	1150	14000	122000
1935	NA	NA	65300	2330	NA	NA	18000	61800	1110	13200	137000
1936	NA	NA	77200	392	NA	NA	26600	68200	1020	12000	182000
1937	NA	NA	89500	318	NA	NA	32300	83500	1200	13600	213000
1938	NA	NA	50500	208	NA	NA	27600	55000	933	10800	166000
1939	NA	15300	71200	2140	NA	NA	37700	74300	1110	13000	180000
1940	1410	18600	127000	2710	NA	21800	79600	102000	1100	12800	240000
1941	1870	26900	79300	1770	NA	50800	76600	80300	1150	12700	244000
1942	16400	21600	27200	416	NA	NA	45000	96400	1150	11500	124000
1943	21800	22800	12100	1800	-14100	NA	25300	60500	1150	10800	146000
1944	31400	19400	13600	857	-16000	40500	21500	51300	1150	10600	102000
1945	41100	21800	8630	896	0	12300	16000	104000	1150	10400	88400
1946	22500	15900	15800	895	0	22600	29900	29100	1200	10000	89400
1947	33800	17200	25300	427	0	12300	33700	82400	1720	12500	115000
1948	37300	18200	50000	93	0	36800	27600	87000	2190	14800	156000
1949	36400	15000	61200	156	0	22800	34000	120000	2190	15000	164000
1950	33600	21900	84200	812	0	18900	37700	139000	2110	14200	172000
1951	32100	20800	28700	1540	0	6860	23100	107000	2800	17500	172000
1952	23200	20800	81800	386	0	13500	29900	112000	2660	16300	177000
1953	38200	19400	75900	206	0	18800	28200	130000	2110	12900	193000
1954	27800	17300	57500	835	0	1370	31600	116000	2020	12300	192000
1955	22700	19800	65900	1120	0	2320	35900	102000	2090	12700	200000
1956	17900	17900	63600	904	0	1030	37000	98700	2240	13400	203000
1957	1590	14600	57100	1560	0	0	36300	72400	2120	12300	204000
1958	W	13800	41800	1360	0	0	35200	55300	2100	11800	156000
1959	W	13700	44300	1390	0	0	41900	49900	2250	12600	164000
1960	W	12500	40200	871	0	0	40800	52900	2240	12300	183000
1961	W	12000	40500	813	0	NA	43200	49300	2500	13700	187000
1962	W	11900	42100	442	1420	NA	37900	60300	2530	13700	190000
1963	W	12900	44000	1650	9470	NA	46700	55900	2570	13700	194000
1964	W	14000	32600	4110	31700	NA	38100	82800	3480	18300	197000
1965	3150	15200	41500	2870	11700	NA	41900	64900	3930	20400	204000
1966	3890	15600	42300	2890	15200	NA	38600	77400	3620	18200	211000
1967	3100	13700	51000	3310	6190	NA	36900	72400	3380	16500	218000
1968	3510	13600	58300	2480	2910	NA	36500	76200	3270	15300	232000
1969	351	13900	55800	2950	1680	NA	31100	74200	3620	16100	229000
1970	NA	12100	51400	4520	3520	NA	26700	66900	3840	16100	232000
1971	4060	11500	47700	2300	1760	NA	25200	64200	3690	14800	235000
1972	4270	11400	53300	1150	237	NA	25800	67500	3910	15300	244000
1973	4880	11900	46600	3460	12900	NA	24400	74200	5020	18400	238000
1974	6100	11700	40200	8550	30700	NA	21700	82900	8740	28900	233000
1975	6500	9130	44400	3600	813	NA	21600	57300	7490	22700	222000
1976	5730	10100	45100	2340	3640	NA	17900	65900	8370	24000	218000
1977	6720	11300	47800	5480	2680	NA	21300	59600	11800	31700	231000
1978	5900	13500	46800	4630	345	NA	17200	66000	13900	34700	241000
1979	4600	13400	48400	569	0	NA	16600	66400	16200	36400	245000
1980	3000	11700	46000	595	25	NA	12100	64600	18700	36900	245000
1981	2000	10400	45900	2360	5920	NA	11100	62900	16200	29000	238000
1982	3500	10400	27900	5770	4170	NA	10300	41000	14400	24400	219000
1983	2500	10800	34000	1340	2870	NA	9860	49300	14400	23600	197000
1984	4000	11100	41200	1430	2400	NA	9680	57500	13800	21600	188000
1985	4300	10000	33800	1490	3010	NA	12400	46900	13100	19900	181000
1986	4350	10200	35800	1550	5490	NA	13900	52800	8450	12600	173000
1987	5280	11500	41200	1320	4080	NA	14500	60100	9230	13200	180000
1988	2050	11300	43500	1210	2390	NA	15000	57500	9730	13400	205000
1989	1570	11000	34000	904	2780	NA	14700	48800	11500	15100	233000
1990	0	13200	33800	658	2150	NA	17300	45900	8520	10600	221000
1991	0	8800	29100	970	6200	NA	13800	46600	8000	9600	201000
1992	0	8900	27300	1890	6310	NA	10700	43700	8870	10300	191000
1993	W	6900	33700	2600	6020	NA	10800	43900	7710	8700	190000
1994	0	7400	32400	2560	5620	NA	10400	43300	8140	8950	178000
1995	0	7720	33200	2790	11500	NA	11700	48300	9160	9800	201000
1996	0	7710	30200	3670	11800	NA	10900	46800	9090	9450	220000
1997	0	7830	40600	4660	11700	NA	11200	55200	8410	8540	241000
1998	0	7790	44000	5020	12200	NA	10500	59700	8230	8230	231000
1999	0	7720	47500	6770	765	NA	10700	49000	8070	7900	245000
2000	0	6560	44900	6640	12000	59700	10400	57200	8160	7730	278000
2001	0	6700	37500	4350	12000	54300	9620	52600	6940	6390	246000
2002	0	6760	42200	2940	8960	45400	8900	52500	6440	5830	233000
2003	0	5500	37100	3690	8880	35600	7960	48700	7490	6640	258000
2004	0	5240	47600	3650	10600	25100	8980	58800	12100	10400	298000
2005	0	11800	37500	4330	8370	16700	8270	54700	10600	8850	296000
2006	0	11600	43300	5490	8410	8200	7890	57100	12500	10100	293000
2007	0	12200	34600	6410	4540	3850	9100	43700	19800	15600	301000
2008	0	11700	36300	9800	60	4020	8560	38800	24900	18900	258000
2009	0	11100	33000	3170	0	4020	7070	42400	18500	14100	237000
2010	0	11100	35300	5630	0	4020	6410	41400	27300	20400	253000
2011	0	11000	34200	5450	0	4020	5880	40300	34700	25100	255000
2012	0	11200	36900	5560	0	4020	6140	42300	28300	20100	240000
NA Not available. W Withheld to avoid disclosing company proprietary data.											
1Compiled by C.A. DiFrancesco, J.F. Carlin, Jr., and A.C. Tolcin.											
Data are calculated, estimated, or reported.  See notes for more information.											
											
